Data from USB4F045381__3__11-15-22-980.txt Node

Date: Wed Apr 24 11:15:22 EDT 2024
User: dsalmieri
Spectrometer: USB4F04538
Trigger mode: 4
Integration Time (sec): 1.000000E0
Scans to average: 10
Electric dark correction enabled: true
Nonlinearity correction enabled: false
Boxcar width: 0
XAxis mode: Wavelengths
Number of Pixels in Spectrum: 3648
>>>>>Begin Spectral Data<<<<<
345.52	-1098.58
345.736	-1098.58
345.952	-1098.58
346.168	-1109.03
346.384	-1110.46
346.6	-179.25
346.816	-269.97
347.032	-176.59
347.248	399.1
347.464	-266.9
347.68	-119.24
347.896	66.51
348.112	360.19
348.328	-72.55
348.544	-80.13
348.76	88.22
348.975	250.62
349.191	-280.62
349.407	-286.56
349.623	75.72
349.839	-29.75
350.055	-207.92
350.27	-5.17
350.486	128.36
350.702	235.87
350.918	205.77
351.133	-210.38
351.349	136.96
351.565	456.65
351.781	-331.41
351.996	-46.54
352.212	216.21
352.428	-122.11
352.644	-315.03
352.859	-274.48
353.075	281.95
353.291	99.48
353.506	-184.57
353.722	-305.2
353.938	-71.53
354.153	393.16
354.369	106.65
354.584	-278.37
354.8	286.66
355.016	-330.8
355.231	-324.24
355.447	-146.89
355.662	134.5
355.878	679.46
356.093	-423.78
356.309	-57.19
356.524	-204.44
356.74	255.13
356.955	-281.24
357.171	-116.99
357.386	164.2
357.602	-220.62
357.817	-134.6
358.033	-252.36
358.248	327.01
358.464	187.13
358.679	-225.94
358.895	-395.51
359.11	-13.98
359.325	233.21
359.541	247.55
359.756	-68.25
359.972	-292.09
360.187	236.08
360.402	-250.72
360.618	-237.82
360.833	1067.76
361.048	157.85
361.264	-251.54
361.479	-106.34
361.694	29.44
361.909	214.17
362.125	-276.73
362.34	-177.61
362.555	181.19
362.77	91.29
362.986	-355.58
363.201	-269.36
363.416	181.6
363.631	12.44
363.847	-301.51
364.062	-224.3
364.277	183.65
364.492	56.27
364.707	-231.68
364.922	-413.74
365.138	243.04
365.353	328.85
365.568	-364.59
365.783	-190.92
365.998	130.81
366.213	508.46
366.428	-316.05
366.643	49.1
366.858	247.14
367.073	218.67
367.288	-197.48
367.503	-299.87
367.718	83.51
367.933	339.09
368.148	-349.43
368.363	-110.64
368.578	19.2
368.793	408.93
369.008	-191.13
369.223	-341.45
369.438	218.67
369.653	307.55
369.868	-330.39
370.083	-326.09
370.298	108.49
370.513	388.86
370.728	-10.29
370.943	-284.1
371.157	-152.01
371.372	584.44
371.587	-399
371.802	-357.63
372.017	30.46
372.232	414.66
372.446	-101.63
372.661	-322.61
372.876	172.59
373.091	208.43
373.306	-145.05
373.52	-348.62
373.735	-121.7
373.95	420.19
374.165	-177.61
374.379	-220.41
374.594	-89.96
374.809	166.04
375.023	-0.26
375.238	-295.98
375.453	228.3
375.667	-245.81
375.882	-242.74
376.097	-294.14
376.311	27.39
376.526	50.12
376.741	-311.14
376.955	101.73
377.17	481.02
377.384	677.83
377.599	-103.68
377.813	-377.49
378.028	571.13
378.242	186.11
378.457	-152.42
378.672	-401.45
378.886	54.02
379.101	-10.7
379.315	-431.76
379.53	-222.67
379.744	237.31
379.958	202.29
380.173	-219.39
380.387	-289.02
380.602	167.88
380.816	-128.46
381.031	-218.77
381.245	-207.92
381.459	186.93
381.674	3073.54
381.888	-315.03
382.103	103.58
382.317	-153.03
382.531	393.57
382.746	-168.19
382.96	-288.2
383.174	-95.69
383.388	469.96
383.603	-25.04
383.817	-382.41
384.031	106.24
384.246	439.85
384.46	-64.36
384.674	376.37
384.888	-42.44
385.103	58.32
385.317	-392.65
385.531	-89.34
385.745	433.91
385.959	286.25
386.174	-274.48
386.388	-303.56
386.602	-8.04
386.816	-117.6
387.03	-163.68
387.244	-188.26
387.458	111.56
387.672	339.09
387.887	-394.49
388.101	-365.2
388.315	293.01
388.529	114.84
388.743	-237.41
388.957	-304.99
389.171	297.11
389.385	-201.98
389.599	-242.12
389.813	-31.59
390.027	192.25
390.241	624.58
390.455	-217.34
390.669	-170.03
390.883	-76.65
391.097	461.36
391.311	1.79
391.525	-250.11
391.738	234.85
391.952	197.78
392.166	-109.41
392.38	-353.33
392.594	274.58
392.808	263.93
393.022	-158.56
393.236	-222.26
393.449	181.19
393.663	216.62
393.877	-355.17
394.091	-173.51
394.305	48.28
394.518	-109.62
394.732	-353.53
394.946	-215.09
395.16	467.5
395.373	101.94
395.587	-322.81
395.801	-265.88
396.015	295.68
396.228	170.95
396.442	-360.08
396.656	-453.88
396.869	313.29
397.083	475.49
397.297	-154.67
397.51	-228.19
397.724	307.35
397.938	131.02
398.151	-410.67
398.365	-388.76
398.578	205.56
398.792	351.18
399.005	-63.33
399.219	-215.09
399.433	141.05
399.646	230.96
399.86	-36.3
400.073	-17.46
400.287	197.58
400.5	1.18
400.714	-44.7
400.927	-149.96
401.141	254.72
401.354	1196.78
401.567	194.3
401.781	-352.71
401.994	201.06
402.208	582.19
402.421	-205.26
402.635	-233.52
402.848	-31.18
403.061	297.11
403.275	-137.27
403.488	-303.15
403.701	446.2
403.915	285.64
404.128	-26.67
404.341	-230.24
404.555	269.46
404.768	-43.67
404.981	-46.54
405.195	-271.41
405.408	413.43
405.621	244.68
405.834	-28.52
406.048	-344.72
406.261	383.94
406.474	404.22
406.687	-300.9
406.9	-111.87
407.114	76.75
407.327	239.36
407.54	-399.41
407.753	-404.32
407.966	-162.25
408.179	166.86
408.392	-289.63
408.605	-437.5
408.819	146.79
409.032	221.54
409.245	-261.99
409.458	-21.76
409.671	181.6
409.884	266.39
410.097	-397.77
410.31	-61.08
410.523	239.36
410.736	-27.7
410.949	-155.08
411.162	-220.21
411.375	336.23
411.588	233.01
411.801	-61.08
412.014	-235.77
412.227	0.97
412.44	-17.66
412.653	-234.54
412.865	-57.39
413.078	290.56
413.291	212.12
413.504	-162.05
413.717	-325.88
413.93	283.18
414.143	-123.34
414.356	-177
414.568	-403.09
414.781	288.3
414.994	176.48
415.207	-153.65
415.42	-171.67
415.632	219.08
415.845	516.86
416.058	-385.89
416.271	-331.41
416.483	93.34
416.696	484.7
416.909	-243.55
417.121	-299.46
417.334	109.72
417.547	455.42
417.759	-311.96
417.972	-281.03
418.185	-73.37
418.397	219.08
418.61	-263.01
418.823	-276.32
419.035	410.36
419.248	79
419.46	-188.26
419.673	-135.83
419.885	103.78
420.098	32.31
420.311	-261.99
420.523	-455.52
420.736	195.53
420.948	54.63
421.161	-264.03
421.373	-436.47
421.586	-42.44
421.798	-127.23
422.01	-409.85
422.223	-112.48
422.435	-109
422.648	291.17
422.86	-270.18
423.073	-257.48
423.285	218.26
423.497	-299.67
423.71	-289.43
423.922	-278.78
424.134	331.92
424.347	475.28
424.559	-52.27
424.771	65.48
424.984	-1.69
425.196	238.95
425.408	-417.63
425.621	-365.82
425.833	317.18
426.045	359.78
426.257	-339.4
426.47	-208.33
426.682	78.59
426.894	135.11
427.106	-256.87
427.318	-160
427.531	-117.2
427.743	175.05
427.955	-218.57
428.167	273.76
428.379	135.73
428.591	-17.46
428.804	-173.1
429.016	-309.29
429.228	-10.7
429.44	167.27
429.652	-41.22
429.864	-376.67
430.076	5.48
430.288	-3.94
430.5	-213.24
430.712	-137.27
430.924	280.93
431.136	143.51
431.348	-379.74
431.56	-266.9
431.772	-4.56
431.984	-68.45
432.196	-299.26
432.408	-255.02
432.62	-28.31
432.832	170.75
433.044	45.21
433.256	-119.45
433.468	194.3
433.679	-274.68
433.891	-343.29
434.103	-15
434.315	240.18
434.527	237.51
434.739	-135.22
434.95	-231.88
435.162	247.75
435.374	-111.87
435.586	-181.5
435.798	-232.5
436.009	-194.2
436.221	-50.84
436.433	-242.33
436.645	-211.61
436.856	-53.3
437.068	343.8
437.28	-282.67
437.491	65.89
437.703	268.23
437.915	175.05
438.126	-225.74
438.338	60.16
438.55	25.96
438.761	166.86
438.973	-183.96
439.184	-182.93
439.396	61.18
439.608	260.86
439.819	-289.02
440.031	-92.82
440.242	285.44
440.454	262.09
440.665	-174.33
440.877	-69.48
441.088	248.78
441.3	39.07
441.511	-335.3
441.723	-240.48
441.934	166.04
442.146	149.66
442.357	-53.5
442.569	125.49
442.78	181.4
442.991	571.95
443.203	184.27
443.414	-272.64
443.626	530.58
443.837	-11.11
444.048	-259.73
444.26	-362.13
444.471	225.63
444.682	301.21
444.894	-329.16
445.105	-324.24
445.316	380.26
445.528	296.49
445.739	-54.12
445.95	-84.63
446.161	211.5
446.373	363.46
446.584	-114.94
446.795	-140.95
447.006	365.92
447.217	501.5
447.429	-304.58
447.64	-257.48
447.851	516.04
448.062	218.88
448.273	-309.29
448.484	-210.17
448.695	323.53
448.907	241.4
449.118	-45.11
449.329	97.43
449.54	56.47
449.751	-25.24
449.962	-146.69
450.173	-173.92
450.384	424.49
450.595	473.03
450.806	-169.42
451.017	-143
451.228	477.94
451.439	414.25
451.65	-119.65
451.861	-371.55
452.072	-38.55
452.283	143.51
452.494	19.4
452.705	-218.57
452.915	545.32
453.126	234.85
453.337	-86.07
453.548	-228.19
453.759	416.51
453.97	597.34
454.181	110.95
454.391	-158.56
454.602	236.08
454.813	311.44
455.024	-127.64
455.235	-224.51
455.445	311.24
455.656	234.65
455.867	-22.78
456.078	-197.07
456.288	55.24
456.499	327.83
456.71	-289.84
456.921	62
457.131	225.43
457.342	166.24
457.553	-150.17
457.763	-195.22
457.974	230.55
458.184	340.73
458.395	-302.13
458.606	-214.68
458.816	427.77
459.027	540.61
459.237	-41.62
459.448	-363.98
459.659	408.93
459.869	747.25
460.08	-363.77
460.29	-84.02
460.501	533.04
460.711	16.33
460.922	-359.67
461.132	-261.17
461.343	803.16
461.553	-160.41
461.764	-247.45
461.974	-226.76
462.184	331.51
462.395	249.8
462.605	-157.74
462.816	-292.09
463.026	193.07
463.236	371.45
463.447	-285.95
463.657	-238.64
463.867	359.78
464.078	28.83
464.288	-162.25
464.498	-232.09
464.709	144.94
464.919	126.51
465.129	-154.47
465.339	-288.61
465.55	232.19
465.76	370.43
465.97	-202.39
466.18	-238.64
466.391	329.67
466.601	204.34
466.811	-166.76
467.021	-342.27
467.231	220.52
467.441	397.25
467.651	-195.84
467.862	-477.84
468.072	96.61
468.282	347.9
468.492	-266.08
468.702	-150.37
468.912	81.66
469.122	756.06
469.332	58.32
469.542	-300.28
469.752	351.59
469.962	152.52
470.172	-298.85
470.382	-309.5
470.592	299.57
470.802	339.3
471.012	-81.77
471.222	-255.43
471.432	297.52
471.642	305.3
471.852	-114.53
472.062	-314.21
472.272	79.21
472.482	-161.64
472.691	-322.4
472.901	-349.03
473.111	109.52
473.321	620.69
473.531	-331.82
473.741	-132.15
473.95	249.19
474.16	300.8
474.37	-113.1
474.58	-355.17
474.79	558.23
474.999	314.31
475.209	-292.71
475.419	-232.7
475.628	15.31
475.838	433.09
476.048	-185.39
476.258	-357.22
476.467	394.18
476.677	-9.88
476.886	-11.72
477.096	-140.95
477.306	-7.83
477.515	428.59
477.725	-130.51
477.935	-155.29
478.144	514.6
478.354	5.07
478.563	-204.64
478.773	-298.65
478.982	321.48
479.192	375.96
479.401	-130.3
479.611	-277.35
479.82	-94.46
480.03	205.36
480.239	-304.58
480.449	-348.82
480.658	508.87
480.868	-10.5
481.077	-133.58
481.287	-199.93
481.496	227.48
481.705	507.03
481.915	49.3
482.124	34.15
482.333	252.87
482.543	563.55
482.752	-97.53
482.961	-262.4
483.171	295.27
483.38	102.96
483.589	-124.16
483.799	-253.79
484.008	102.76
484.217	279.7
484.426	-187.24
484.636	-306.22
484.845	406.88
485.054	-173.1
485.263	140.85
485.472	-162.05
485.682	505.39
485.891	209.87
486.1	-329.36
486.309	-237.41
486.518	331.92
486.727	529.55
486.936	-264.85
487.146	-57.8
487.355	501.09
487.564	-48.59
487.773	-163.07
487.982	-201.16
488.191	54.63
488.4	220.11
488.609	-171.67
488.818	-165.73
489.027	662.47
489.236	562.73
489.445	-120.06
489.654	-252.36
489.863	452.96
490.072	170.95
490.281	236.08
490.49	-118.63
490.698	575.84
490.907	601.03
491.116	-145.25
491.325	-289.43
491.534	529.76
491.743	203.72
491.952	-65.18
492.16	-133.78
492.369	358.34
492.578	451.73
492.787	-59.44
492.996	-45.11
493.204	72.45
493.413	650.79
493.622	-321.17
493.831	-313.6
494.039	689.09
494.248	-16.43
494.457	-170.44
494.665	-292.71
494.874	390.09
495.083	738.45
495.291	-176.18
495.5	-202.19
495.709	439.65
495.917	276.42
496.126	-18.89
496.335	-186.83
496.543	157.44
496.752	363.67
496.96	129.99
497.169	-279.6
497.377	250.42
497.586	466.68
497.794	-13.98
498.003	-303.36
498.211	235.26
498.42	568.46
498.628	-28.31
498.837	-195.43
499.045	372.06
499.254	289.94
499.462	-112.08
499.671	-153.24
499.879	765.27
500.087	546.96
500.296	-203.21
500.504	-69.07
500.713	320.25
500.921	740.49
501.129	-129.48
501.338	-107.36
501.546	374.93
501.754	291.58
501.962	-65.59
502.171	-184.16
502.379	415.69
502.587	656.94
502.795	-15.82
503.004	-59.03
503.212	362.85
503.42	572.97
503.628	-81.97
503.837	44.18
504.045	461.36
504.253	725.34
504.461	-110.64
504.669	-253.38
504.877	494.94
505.085	626.42
505.294	-216.73
505.502	160.1
505.71	377.39
505.918	470.37
506.126	-166.96
506.334	-111.87
506.542	282.57
506.75	415.48
506.958	85.76
507.166	-14.8
507.374	204.54
507.582	712.64
507.79	50.33
507.998	-99.38
508.206	500.68
508.414	457.06
508.622	-74.6
508.83	1.18
509.037	493.3
509.245	225.23
509.453	-124.77
509.661	-157.54
509.869	491.87
510.077	256.56
510.285	72.45
510.492	-320.35
510.7	851.7
510.908	246.73
511.116	-9.88
511.324	-74.6
511.531	225.23
511.739	416.1
511.947	136.55
512.155	247.96
512.362	427.77
512.57	81.87
512.778	-77.67
512.985	-218.57
513.193	544.91
513.401	715.71
513.608	-2.3
513.816	-65.18
514.024	470.16
514.231	618.23
514.439	-37.94
514.646	-9.06
514.854	578.09
515.061	605.12
515.269	-3.53
515.477	-18.07
515.684	148.43
515.892	623.96
516.099	-153.44
516.307	-156.72
516.514	531.4
516.722	779.41
516.929	-4.97
517.136	-136.65
517.344	693.6
517.551	462.18
517.759	-58.42
517.966	9.98
518.173	255.13
518.381	353.22
518.588	92.93
518.796	-90.98
519.003	575.63
519.21	415.07
519.418	-5.17
519.625	304.89
519.832	379.85
520.039	492.49
520.247	-187.44
520.454	2.82
520.661	633.59
520.868	517.47
521.076	-36.1
521.283	54.02
521.49	967.82
521.697	464.43
521.904	78.59
522.112	3.64
522.319	606.56
522.526	511.74
522.733	-49.82
522.94	-15.41
523.147	429.82
523.354	569.28
523.561	-128.87
523.768	106.24
523.975	668.61
524.183	381.49
524.39	172.8
524.597	-101.02
524.804	437.39
525.011	226.04
525.218	-14.59
525.425	-24.83
525.632	726.77
525.838	244.68
526.045	-18.89
526.252	29.03
526.459	1309.01
526.666	1327.24
526.873	8.76
527.08	-3.94
527.287	745.2
527.494	653.46
527.701	-112.48
527.907	-58.01
528.114	537.95
528.321	395.41
528.528	39.07
528.735	-28.31
528.941	271.92
529.148	280.73
529.355	86.78
529.562	-5.79
529.768	729.03
529.975	335.41
530.182	71.01
530.388	-7.83
530.595	668.82
530.802	163.99
531.008	171.36
531.215	54.63
531.422	1136.78
531.628	1148.86
531.835	113.41
532.042	105.01
532.248	285.23
532.455	479.99
532.661	77.77
532.868	-2.71
533.074	490.64
533.281	671.27
533.487	37.43
533.694	20.63
533.9	238.74
534.107	569.9
534.313	-2.3
534.52	-78.08
534.726	634.41
534.933	926.86
535.139	-30.36
535.345	-64.56
535.552	567.85
535.758	429.2
535.965	98.05
536.171	10.6
536.377	607.38
536.584	815.25
536.79	46.03
536.996	128.15
537.203	514.19
537.409	638.92
537.615	45.21
537.821	15.72
538.028	638.71
538.234	631.54
538.44	64.66
538.646	133.27
538.853	537.13
539.059	404.22
539.265	489.41
539.471	-137.47
539.677	682.74
539.883	320.05
540.09	12.03
540.296	413.84
540.502	434.53
540.708	291.17
540.914	278.68
541.12	70.81
541.326	614.54
541.532	449.89
541.738	161.74
541.944	135.73
542.15	733.33
542.356	428.18
542.562	-22.58
542.768	135.32
542.974	969.46
543.18	972.12
543.386	50.12
543.592	-64.36
543.798	841.25
544.004	773.67
544.21	54.02
544.415	183.86
544.621	611.47
544.827	780.22
545.033	-15.21
545.239	347.69
545.445	249.6
545.651	555.56
545.856	64.66
546.062	85.14
546.268	391.52
546.474	535.49
546.679	124.47
546.885	166.65
547.091	324.35
547.297	969.25
547.502	207.41
547.708	-2.1
547.914	321.28
548.119	726.16
548.325	15.31
548.531	16.54
548.736	916.01
548.942	340.53
549.147	97.84
549.353	340.32
549.559	764.25
549.764	607.38
549.97	110.33
550.175	113.41
550.381	694.42
550.586	398.89
550.792	162.97
550.997	128.77
551.203	661.65
551.408	716.74
551.614	34.97
551.819	76.13
552.025	928.91
552.23	864.81
552.435	48.9
552.641	266.59
552.846	337.86
553.052	827.33
553.257	294.45
553.462	128.77
553.668	374.93
553.873	769.99
554.078	81.05
554.283	83.1
554.489	618.44
554.694	517.06
554.899	32.1
555.105	293.01
555.31	679.26
555.515	742.95
555.72	230.96
555.925	595.09
556.131	749.91
556.336	426.54
556.541	93.95
556.746	33.13
556.951	862.55
557.156	871.36
557.361	260.66
557.567	282.98
557.772	1007.96
557.977	728
558.182	140.03
558.387	142.9
558.592	401.15
558.797	908.02
559.002	191.02
559.207	271.3
559.412	574.61
559.617	1016.36
559.822	148.22
560.027	76.34
560.232	613.52
560.437	763.64
560.642	9.16
560.847	106.85
561.051	574.2
561.256	629.49
561.461	197.78
561.666	47.05
561.871	572.77
562.076	757.29
562.281	211.91
562.485	72.24
562.69	748.07
562.895	762.82
563.1	194.71
563.305	122.42
563.509	831.83
563.714	1050.15
563.919	177.1
564.123	164.61
564.328	534.06
564.533	887.13
564.737	244.27
564.942	152.11
565.147	917.64
565.351	990.35
565.556	299.16
565.761	292.19
565.965	692.57
566.17	416.71
566.374	231.78
566.579	88.42
566.784	666.56
566.988	488.8
567.193	59.75
567.397	235.06
567.602	306.73
567.806	611.27
568.011	196.76
568.215	238.13
568.42	555.15
568.624	594.06
568.828	213.76
569.033	376.16
569.237	811.35
569.442	761.79
569.646	84.94
569.85	207
570.055	550.65
570.259	661.44
570.463	446.2
570.668	243.86
570.872	576.04
571.076	541.02
571.281	372.27
571.485	328.24
571.689	666.56
571.893	809.51
572.098	385.38
572.302	223.18
572.506	761.79
572.71	690.93
572.914	270.08
573.119	228.09
573.323	983.79
573.527	940.17
573.731	237.72
573.935	184.88
574.139	685.2
574.343	503.54
574.547	240.79
574.751	364.08
574.955	909.86
575.159	910.27
575.364	265.78
575.568	178.94
575.772	630.93
575.976	866.24
576.18	225.84
576.383	175.87
576.587	926.86
576.791	796.2
576.995	93.95
577.199	100.3
577.403	805.62
577.607	899.42
577.811	135.93
578.015	363.05
578.219	766.3
578.422	860.71
578.626	331.31
578.83	489.21
579.034	938.94
579.238	708.75
579.442	230.96
579.645	654.27
579.849	656.73
580.053	736.4
580.257	313.29
580.46	338.07
580.664	919.08
580.868	826.92
581.071	508.46
581.275	438.01
581.479	385.38
581.682	895.73
581.886	292.6
582.09	393.16
582.293	884.47
582.497	933
582.7	503.95
582.904	278.47
583.107	714.49
583.311	625.81
583.515	364.28
583.718	395.21
583.922	867.06
584.125	1207.84
584.329	261.68
584.532	478.15
584.735	1080.25
584.939	844.12
585.142	201.47
585.346	261.47
585.549	784.94
585.753	608.81
585.956	344.42
586.159	515.83
586.363	1119.37
586.566	840.64
586.769	279.7
586.973	252.87
587.176	871.36
587.379	959.63
587.582	664.11
587.786	581.78
587.989	750.94
588.192	1449.09
588.395	451.94
588.599	691.75
588.802	858.05
589.005	923.38
589.208	386.81
589.411	388.65
589.615	964.95
589.818	1175.28
590.021	625.81
590.224	506.41
590.427	999.97
590.63	939.76
590.833	234.65
591.036	344.62
591.239	689.7
591.442	651.61
591.645	620.48
591.848	394.8
592.051	836.54
592.254	1016.36
592.457	454.6
592.66	456.24
592.863	728.62
593.066	938.53
593.269	411.59
593.472	502.32
593.675	590.38
593.878	959.42
594.081	542.66
594.284	295.68
594.486	937.51
594.689	830.81
594.892	512.15
595.095	500.06
595.298	972.73
595.5	669.63
595.703	515.01
595.906	572.15
596.109	1121.01
596.311	1014.1
596.514	195.94
596.717	523.41
596.92	1102.98
597.122	968.84
597.325	258.61
597.528	370.02
597.73	1138.21
597.933	883.24
598.136	438.21
598.338	201.88
598.541	969.87
598.743	1139.03
598.946	514.4
599.148	475.69
599.351	1113.84
599.554	1034.38
599.756	610.45
599.959	496.58
600.161	1082.3
600.363	1383.35
600.566	712.03
600.768	435.96
600.971	1174.66
601.173	1050.76
601.376	478.15
601.578	502.52
601.78	936.48
601.983	1432.5
602.185	441.9
602.388	691.14
602.59	993.01
602.792	764.66
602.995	588.54
603.197	541.84
603.399	1118.55
603.601	996.7
603.804	541.84
604.006	486.75
604.208	800.29
604.41	434.53
604.613	710.8
604.815	430.64
605.017	1334.61
605.219	705.27
605.421	971.3
605.623	520.75
605.826	1216.24
606.028	1314.13
606.23	532.42
606.432	534.06
606.634	1229.75
606.836	1148.65
607.038	427.16
607.24	683.97
607.442	965.57
607.644	907.61
607.846	654.89
608.048	446
608.25	1238.97
608.452	718.99
608.654	588.74
608.856	339.71
609.058	819.34
609.26	1116.3
609.462	660.01
609.664	611.88
609.866	1215.83
610.067	1127.15
610.269	729.84
610.471	582.8
610.673	814.02
610.875	1104.42
611.077	399.3
611.278	637.89
611.48	967.82
611.682	1329.49
611.884	641.37
612.085	630.93
612.287	665.95
612.489	985.02
612.69	424.29
612.892	610.45
613.094	1246.34
613.295	1032.13
613.497	461.97
613.699	591.61
613.9	1285.87
614.102	1105.03
614.304	628.47
614.505	470.78
614.707	915.39
614.908	985.84
615.11	445.59
615.311	672.71
615.513	1143.94
615.714	1104.62
615.916	506.62
616.117	632.16
616.319	919.28
616.52	1173.64
616.722	560.89
616.923	536.31
617.124	1300.2
617.326	1126.13
617.527	762.61
617.729	846.58
617.93	1129.61
618.131	1158.48
618.333	603.49
618.534	684.18
618.735	910.07
618.937	1320.48
