Data from USB4F045381__1__11-13-12-990.txt Node

Date: Wed Apr 24 11:13:12 EDT 2024
User: dsalmieri
Spectrometer: USB4F04538
Trigger mode: 4
Integration Time (sec): 1.000000E0
Scans to average: 10
Electric dark correction enabled: true
Nonlinearity correction enabled: false
Boxcar width: 0
XAxis mode: Wavelengths
Number of Pixels in Spectrum: 3648
>>>>>Begin Spectral Data<<<<<
345.52	-1113.94
345.736	-1113.94
345.952	-1113.94
346.168	-1106.57
346.384	-1112.92
346.6	-153.03
346.816	-253.18
347.032	-174.95
347.248	392.75
347.464	-274.89
347.68	-158.77
347.896	94.97
348.112	357.73
348.328	-121.91
348.544	-64.36
348.76	83.3
348.975	272.33
349.191	-255.23
349.407	-268.54
349.623	72.24
349.839	-47.97
350.055	-195.43
350.27	-31.59
350.486	151.5
350.702	248.16
350.918	232.8
351.133	-181.09
351.349	135.11
351.565	437.19
351.781	-304.99
351.996	-15.21
352.212	200.85
352.428	-105.11
352.644	-281.24
352.859	-260.14
353.075	267.21
353.291	113.41
353.506	-195.43
353.722	-326.5
353.938	-57.8
354.153	442.72
354.369	90.26
354.584	-260.96
354.8	281.54
355.016	-303.36
355.231	-329.36
355.447	-122.31
355.662	133.07
355.878	752.99
356.093	-430.12
356.309	-65.38
356.524	-196.45
356.74	271.92
356.955	-305.2
357.171	-58.83
357.386	175.66
357.602	-216.93
357.817	-153.85
358.033	-236.8
358.248	326.19
358.464	220.31
358.679	-219.18
358.895	-362.75
359.11	-13.57
359.325	244.07
359.541	251.03
359.756	-64.15
359.972	-288
360.187	236.69
360.402	-235.57
360.618	-204.44
360.833	1079.64
361.048	141.87
361.264	-220.21
361.479	-92.41
361.694	1.18
361.909	207.61
362.125	-264.65
362.34	-187.03
362.555	196.96
362.77	106.65
362.986	-345.34
363.201	-227.79
363.416	183.45
363.631	22.07
363.847	-276.94
364.062	-213.04
364.277	169.93
364.492	45.62
364.707	-223.07
364.922	-402.68
365.138	229.53
365.353	325.58
365.568	-353.94
365.783	-226.15
365.998	110.74
366.213	537.54
366.428	-306.02
366.643	29.64
366.858	222.36
367.073	211.5
367.288	-189.9
367.503	-278.17
367.718	110.13
367.933	318.2
368.148	-350.46
368.363	-128.25
368.578	27.6
368.793	416.71
369.008	-192.56
369.223	-299.46
369.438	233.01
369.653	318.61
369.868	-325.88
370.083	-332.03
370.298	106.85
370.513	399.51
370.728	-12.54
370.943	-241.51
371.157	-169.01
371.372	557
371.587	-354.96
371.802	-340.22
372.017	52.17
372.232	417.32
372.446	-129.28
372.661	-320.97
372.876	200.04
373.091	194.3
373.306	-162.05
373.52	-340.42
373.735	-113.92
373.95	456.03
374.165	-206.69
374.379	-198.09
374.594	-120.27
374.809	168.5
375.023	5.68
375.238	-323.63
375.453	258.4
375.667	-242.12
375.882	-231.06
376.097	-280.21
376.311	30.05
376.526	62.21
376.741	-293.12
376.955	96.41
377.17	513.17
377.384	641.37
377.599	-81.77
377.813	-348.82
378.028	556.18
378.242	208.02
378.457	-142.59
378.672	-402.68
378.886	79.41
379.101	-12.75
379.315	-412.51
379.53	-226.56
379.744	249.6
379.958	200.24
380.173	-265.67
380.387	-273.46
380.602	214.58
380.816	-112.89
381.031	-243.55
381.245	-191.33
381.459	169.93
381.674	3106.72
381.888	-295.78
382.103	87.81
382.317	-158.15
382.531	410.77
382.746	-114.94
382.96	-240.07
383.174	-111.87
383.388	518.08
383.603	13.47
383.817	-341.65
384.031	116.68
384.246	427.36
384.46	-74.6
384.674	372.27
384.888	-17.05
385.103	48.9
385.317	-382.41
385.531	-69.27
385.745	416.71
385.959	302.02
386.174	-273.86
386.388	-310.32
386.602	23.91
386.816	-121.29
387.03	-155.29
387.244	-155.08
387.458	95.38
387.672	359.16
387.887	-388.96
388.101	-354.35
388.315	324.96
388.529	123.03
388.743	-241.92
388.957	-310.52
389.171	283.18
389.385	-179.25
389.599	-264.24
389.813	-20.94
390.027	176.28
390.241	631.13
390.455	-214.47
390.669	-162.05
390.883	-85.86
391.097	462.99
391.311	-43.26
391.525	-222.05
391.738	254.72
391.952	184.47
392.166	-94.05
392.38	-334.07
392.594	261.47
392.808	282.16
393.022	-143.82
393.236	-191.33
393.449	174.85
393.663	209.87
393.877	-339.6
394.091	-169.21
394.305	18.99
394.518	-93.85
394.732	-337.56
394.946	-166.14
395.16	485.11
395.373	117.09
395.587	-295.78
395.801	-269.56
396.015	280.52
396.228	196.55
396.442	-364.38
396.656	-441.59
396.869	330.49
397.083	497.81
397.297	-118.22
397.51	-188.05
397.724	306.94
397.938	126.92
398.151	-377.7
398.365	-369.71
398.578	228.71
398.792	360.39
399.005	-42.44
399.219	-202.19
399.433	151.91
399.646	239.15
399.86	-31.39
400.073	-0.46
400.287	230.55
400.5	12.65
400.714	-71.93
400.927	-141.36
401.141	263.52
401.354	1147.63
401.567	210.48
401.781	-331.62
401.994	216.21
402.208	576.04
402.421	-168.39
402.635	-176.38
402.848	-32.2
403.061	257.38
403.275	-111.05
403.488	-303.76
403.701	443.95
403.915	297.11
404.128	-7.63
404.341	-233.72
404.555	270.49
404.768	-39.17
404.981	-26.27
405.195	-232.7
405.408	436.17
405.621	276.22
405.834	-17.46
406.048	-336.94
406.261	403.81
406.474	411.18
406.687	-257.07
406.9	-63.54
407.114	61.39
407.327	222.56
407.54	-376.47
407.753	-393.26
407.966	-116.17
408.179	178.94
408.392	-291.89
408.605	-388.35
408.819	126.1
409.032	216.01
409.245	-243.76
409.458	-26.47
409.671	207.61
409.884	282.57
410.097	-354.76
410.31	-46.95
410.523	268.64
410.736	-18.69
410.949	-163.89
411.162	-210.17
411.375	349.95
411.588	249.39
411.801	-24.22
412.014	-205.46
412.227	55.24
412.44	-41.01
412.653	-207.31
412.865	-62.92
413.078	316.16
413.291	207.82
413.504	-120.68
413.717	-271.41
413.93	255.94
414.143	-142.79
414.356	-154.26
414.568	-382.61
414.781	253.28
414.994	144.33
415.207	-130.1
415.42	-155.7
415.632	238.54
415.845	534.47
416.058	-375.85
416.271	-338.17
416.483	90.47
416.696	512.56
416.909	-272.02
417.121	-273.86
417.334	133.68
417.547	469.34
417.759	-290.86
417.972	-300.69
418.185	-57.8
418.397	242.84
418.61	-257.69
418.823	-264.44
419.035	408.31
419.248	78.8
419.46	-153.03
419.673	-109
419.885	149.66
420.098	56.68
420.311	-217.55
420.523	-435.45
420.736	245.71
420.948	87.6
421.161	-226.76
421.373	-429.92
421.586	-28.52
421.798	-57.19
422.01	-394.29
422.223	-93.64
422.435	-68.04
422.648	321.89
422.86	-227.99
423.073	-221.44
423.285	271.51
423.497	-233.93
423.71	-253.18
423.922	-249.7
424.134	359.78
424.347	498.63
424.559	-33.84
424.771	98.46
424.984	40.7
425.196	249.39
425.408	-390.39
425.621	-286.36
425.833	316.77
426.045	399.71
426.257	-292.5
426.47	-163.68
426.682	114.23
426.894	229.32
427.106	-212.84
427.318	-148.12
427.531	-34.25
427.743	216.62
427.955	-154.26
428.167	276.22
428.379	182.01
428.591	65.28
428.804	-105.73
429.016	-248.06
429.228	24.52
429.44	209.25
429.652	-20.53
429.864	-303.76
430.076	48.49
430.288	72.04
430.5	-131.33
430.712	-94.87
430.924	338.48
431.136	172.39
431.348	-325.27
431.56	-197.88
431.772	67.53
431.984	-0.46
432.196	-191.54
432.408	-181.09
432.62	63.23
432.832	238.54
433.044	105.21
433.256	-70.5
433.468	264.34
433.679	-178.84
433.891	-259.53
434.103	30.05
434.315	325.99
434.527	321.28
434.739	-45.31
434.95	-157.34
435.162	335.41
435.374	-12.75
435.586	-81.77
435.798	-140.13
436.009	-100.4
436.221	23.91
436.433	-140.34
436.645	-122.52
436.856	22.48
437.068	431.05
437.28	-191.13
437.491	107.47
437.703	332.13
437.915	285.03
438.126	-120.88
438.338	157.03
438.55	137.98
438.761	250.62
438.973	-103.27
439.184	-101.02
439.396	161.94
439.608	361.82
439.819	-182.93
440.031	-17.66
440.242	337.66
440.454	384.76
440.665	-60.47
440.877	25.75
441.088	376.98
441.3	159.49
441.511	-228.81
441.723	-122.31
441.934	238.54
442.146	273.76
442.357	77.98
442.569	217.44
442.78	277.65
442.991	702.61
443.203	280.52
443.414	-142.39
443.626	665.54
443.837	115.66
444.048	-128.87
444.26	-200.96
444.471	340.12
444.682	453.37
444.894	-182.32
445.105	-154.88
445.316	556.59
445.528	425.52
445.739	97.02
445.95	57.91
446.161	393.57
446.373	556.18
446.584	23.09
446.795	4.25
447.006	478.97
447.217	654.27
447.429	-168.39
447.64	-90.16
447.851	648.95
448.062	401.35
448.273	-114.12
448.484	-45.31
448.695	482.86
448.907	415.28
449.118	102.55
449.329	244.07
449.54	223.18
449.751	166.04
449.962	-16.43
450.173	-30.36
450.384	571.95
450.595	657.55
450.806	-31.18
451.017	33.13
451.228	644.85
451.439	562.94
451.65	21.04
451.861	-204.44
452.072	123.44
452.283	279.7
452.494	168.7
452.705	-69.89
452.915	690.11
453.126	380.05
453.337	17.15
453.548	-120.47
453.759	556.79
453.97	719.81
454.181	221.33
454.391	-29.54
454.602	347.9
454.813	451.12
455.024	2.61
455.235	-77.87
455.445	409.34
455.656	380.26
455.867	109.11
456.078	-69.89
456.288	197.78
456.499	453.16
456.71	-135.83
456.921	172.39
457.131	342.78
457.342	306.73
457.553	8.14
457.763	-80.74
457.974	378.41
458.184	442.51
458.395	-163.48
458.606	-111.26
458.816	545.73
459.027	680.9
459.237	49.51
459.448	-251.34
459.659	535.49
459.869	809.92
460.08	-235.16
460.29	46.23
460.501	689.09
460.711	127.13
460.922	-234.75
461.132	-133.17
461.343	866.65
461.553	-17.05
461.764	-123.34
461.974	-106.14
462.184	454.39
462.395	372.68
462.605	-57.6
462.816	-167.17
463.026	335.82
463.236	489.21
463.447	-124.16
463.657	-175.15
463.867	498.63
464.078	191.02
464.288	-46.13
464.498	-96.31
464.709	240.99
464.919	221.13
465.129	-44.08
465.339	-152.42
465.55	374.93
465.76	468.11
465.97	-61.7
466.18	-126.62
466.391	488.59
466.601	350.36
466.811	-46.74
467.021	-219.39
467.231	341.75
467.441	504.57
467.651	-63.95
467.862	-350.25
468.072	238.13
468.282	462.18
468.492	-116.38
468.702	-65.79
468.912	238.95
469.122	858.05
469.332	160.71
469.542	-172.49
469.752	496.79
469.962	298.13
470.172	-180.68
470.382	-152.62
470.592	430.23
470.802	440.67
471.012	5.07
471.222	-139.31
471.432	412.2
471.642	420.6
471.852	-2.1
472.062	-170.24
472.272	157.44
472.482	-22.17
472.691	-190.31
472.901	-232.29
473.111	248.16
473.321	781.25
473.531	-180.89
473.741	-38.76
473.95	354.45
474.16	396.64
474.37	-9.06
474.58	-226.76
474.79	695.44
474.999	388.45
475.209	-173.31
475.419	-106.75
475.628	163.99
475.838	534.47
476.048	-3.12
476.258	-217.55
476.467	476.92
476.677	118.12
476.886	117.5
477.096	-15.41
477.306	117.71
477.515	599.18
477.725	-2.71
477.935	-6.6
478.144	625.19
478.354	112.18
478.563	-46.54
478.773	-134.6
478.982	467.7
479.192	502.52
479.401	26.16
479.611	-152.01
479.82	56.88
480.03	338.89
480.239	-145.05
480.449	-153.44
480.658	657.35
480.868	135.73
481.077	15.31
481.287	-37.94
481.496	386.2
481.705	622.74
481.915	203.31
482.124	200.44
482.333	402.17
482.543	687.45
482.752	18.99
482.961	-102.86
483.171	477.33
483.38	275.2
483.589	-0.67
483.799	-95.9
484.008	314.31
484.217	453.57
484.426	1.18
484.636	-155.9
484.845	554.54
485.054	16.33
485.263	260.45
485.472	-19.71
485.682	660.42
485.891	368.58
486.1	-139.11
486.309	-30.77
486.518	504.57
486.727	669.22
486.936	-92
487.146	129.38
487.355	668.82
487.564	126.31
487.773	17.77
487.982	30.05
488.191	264.55
488.4	395.21
488.609	8.35
488.818	26.57
489.027	854.98
489.236	742.34
489.445	68.97
489.654	-28.52
489.863	622.94
490.072	377.39
490.281	413.43
490.49	29.64
490.698	784.73
490.907	833.68
491.116	60.77
491.325	-62.51
491.534	714.89
491.743	455.42
491.952	159.49
492.16	131.63
492.369	545.94
492.578	674.14
492.787	152.11
492.996	155.39
493.204	300.59
493.413	835.93
493.622	-77.46
493.831	-85.25
494.039	903.51
494.248	187.13
494.457	60.77
494.665	-46.54
494.874	622.74
495.083	944.27
495.291	80.23
495.5	65.48
495.709	667.18
495.917	535.08
496.126	246.52
496.335	85.35
496.543	377.18
496.752	570.31
496.96	374.11
497.169	-26.67
497.377	494.53
497.586	737.83
497.794	233.21
498.003	-65.38
498.211	488.59
498.42	831.22
498.628	232.8
498.837	101.94
499.045	649.36
499.254	567.24
499.462	173.21
499.671	92.11
499.879	998.13
500.087	801.73
500.296	78.8
500.504	191.84
500.713	640.76
500.921	1041.34
501.129	148.63
501.338	187.75
501.546	641.37
501.754	589.56
501.962	190
502.171	76.34
502.379	703.22
502.587	939.56
502.795	268.03
503.004	233.21
503.212	658.78
503.42	890.61
503.628	212.73
503.837	357.93
504.045	771.21
504.253	1030.28
504.461	213.35
504.669	77.36
504.877	756.88
505.085	940.79
505.294	120.37
505.502	445.59
505.71	641.58
505.918	763.43
506.126	178.12
506.334	203.31
506.542	597.55
506.75	734.56
506.958	395.21
507.166	316.16
507.374	541.23
507.582	1062.64
507.79	389.88
507.998	217.65
508.206	886.72
508.414	786.37
508.622	262.5
508.83	354.66
509.037	830.81
509.245	598.57
509.453	247.55
509.661	193.48
509.869	849.04
510.077	612.09
510.285	447.63
510.492	38.45
510.7	1217.67
510.908	597.75
511.116	325.99
511.324	261.27
511.531	624.58
511.739	756.67
511.947	475.49
512.155	620.48
512.362	796.4
512.57	435.76
512.778	269.87
512.985	118.53
513.193	944.27
513.401	1073.08
513.608	393.36
513.816	330.49
514.024	898.6
514.231	980.93
514.439	349.95
514.646	352.81
514.854	968.43
515.061	965.36
515.269	352.4
515.477	370.43
515.684	502.11
515.892	999.97
516.099	216.42
516.307	259.63
516.514	948.98
516.722	1123.46
516.929	373.29
517.136	272.33
517.344	1061.21
517.551	843.51
517.759	339.91
517.966	404.63
518.173	680.49
518.381	750.94
518.588	460.95
518.796	355.07
519.003	989.94
519.21	816.06
519.418	348.1
519.625	701.38
519.832	767.53
520.039	902.08
520.247	236.9
520.454	392.34
520.661	1030.69
520.868	906.58
521.076	440.67
521.283	469.55
521.49	1368.4
521.697	899.01
521.904	451.94
522.112	416.1
522.319	1032.74
522.526	940.99
522.733	361.21
522.94	436.58
523.147	810.33
523.354	1014.31
523.561	283.39
523.768	508.87
523.975	1095.41
524.183	871.36
524.39	598.16
524.597	312.67
524.804	850.68
525.011	637.28
525.218	419.37
525.425	439.24
525.632	1183.88
525.838	677.42
526.045	452.14
526.252	461.15
526.459	1775.74
526.666	1793.76
526.873	434.12
527.08	464.63
527.287	1197.4
527.494	1056.29
527.701	371.04
527.907	394.59
528.114	1024.75
528.321	879.76
528.528	488.59
528.735	406.68
528.941	785.14
529.148	738.65
529.355	562.32
529.562	464.02
529.768	1316.18
529.975	809.1
530.182	528.94
530.388	469.34
530.595	1124.9
530.802	610.86
531.008	689.3
531.215	510.92
531.422	1589.58
531.628	1644.06
531.835	593.45
532.042	601.85
532.248	770.8
532.455	961.88
532.661	558.43
532.868	458.08
533.074	990.76
533.281	1161.15
533.487	529.76
533.694	499.04
533.9	744.39
534.107	1037.04
534.313	508.66
534.52	424.9
534.726	1087.22
534.933	1393.59
535.139	447.63
535.345	418.55
535.552	1142.1
535.758	957.58
535.965	570.51
536.171	500.06
536.377	1120.39
536.584	1345.87
536.79	565.19
536.996	671.68
537.203	1044.82
537.409	1130.02
537.615	601.23
537.821	542.66
538.028	1202.31
538.234	1129.81
538.44	592.43
538.646	677.01
538.853	1109.95
539.059	903.1
539.265	1046.67
539.471	380.05
539.677	1212.96
539.883	853.54
540.09	565.8
540.296	980.31
540.502	948.98
540.708	810.13
540.914	824.46
541.12	629.49
541.326	1142.1
541.532	994.85
541.738	701.79
541.944	689.3
542.15	1257.81
542.356	967.2
542.562	546.14
542.768	704.45
542.974	1548.01
543.18	1507.66
543.386	584.44
543.592	474.05
543.798	1433.53
544.004	1337.68
544.21	615.36
544.415	761.59
544.621	1150.09
544.827	1348.33
545.033	509.69
545.239	880.78
545.445	771.21
545.651	1131.66
545.856	637.48
546.062	617
546.268	919.49
546.474	1117.73
546.679	676.19
546.885	752.17
547.091	892.04
547.297	1506.64
547.502	763.43
547.708	585.46
547.914	887.95
548.119	1264.16
548.325	600.82
548.531	550.85
548.736	1491.07
548.942	914.57
549.147	646.7
549.353	947.34
549.559	1351.81
549.764	1185.31
549.97	717.56
550.175	711.21
550.381	1247.16
550.586	962.49
550.792	764.25
550.997	727.39
551.203	1218.08
551.408	1300.61
551.614	566.21
551.819	673.73
552.025	1545.14
552.23	1481.04
552.435	664.72
552.641	888.56
552.846	923.79
553.052	1450.12
553.257	886.31
553.462	707.73
553.668	934.03
553.873	1343.42
554.078	690.52
554.283	717.97
554.489	1227.09
554.694	1145.99
554.899	696.26
555.105	927.47
555.31	1282.18
555.515	1366.35
555.72	869.72
555.925	1220.54
556.131	1364.31
556.336	1043.59
556.541	749.51
556.746	663.9
556.951	1530.6
557.156	1483.91
557.361	885.9
557.567	981.34
557.772	1608.42
557.977	1320.27
558.182	800.91
558.387	792.72
558.592	1034.17
558.797	1518.52
559.002	875.05
559.207	903.51
559.412	1217.47
559.617	1674.37
559.822	824.26
560.027	692.98
560.232	1261.7
560.437	1379.05
560.642	668.82
560.847	733.53
561.051	1196.58
561.256	1274.81
561.461	873.61
561.666	732.1
561.871	1227.3
562.076	1431.89
562.281	873.61
562.485	730.46
562.69	1407.11
562.895	1443.15
563.1	862.76
563.305	726.77
563.509	1527.73
563.714	1760.59
563.919	793.13
564.123	872.18
564.328	1203.34
564.533	1573.2
564.737	908.22
564.942	808.49
565.147	1567.26
565.351	1659.42
565.556	968.02
565.761	968.23
565.965	1350.79
566.17	1065.92
566.374	892.25
566.579	808.08
566.784	1340.34
566.988	1195.14
567.193	745.41
567.397	965.16
567.602	959.22
567.806	1283.21
568.011	897.16
568.215	964.13
568.42	1230.78
568.624	1239.79
568.828	931.57
569.033	1099.09
569.237	1508.89
569.442	1454.62
569.646	770.8
569.85	893.48
570.055	1278.91
570.259	1387.86
570.463	1153.98
570.668	977.65
570.872	1287.3
571.076	1241.84
571.281	1106.06
571.485	1059.36
571.689	1356.32
571.893	1520.16
572.098	1113.43
572.302	948.36
572.506	1521.79
572.71	1376.8
572.914	980.93
573.119	962.7
573.323	1718.81
573.527	1665.77
573.731	978.67
573.935	906.17
574.139	1439.47
574.343	1217.47
574.547	1002.43
574.751	1079.02
574.955	1613.75
575.159	1650
575.364	1006.12
575.568	911.09
575.772	1379.67
575.976	1618.05
576.18	963.52
576.383	930.34
576.587	1673.55
576.791	1511.14
576.995	830.6
577.199	859.48
577.403	1557.84
577.607	1666.18
577.811	962.9
578.015	1158.48
578.219	1533.26
578.422	1626.24
578.626	1138.82
578.83	1268.05
579.034	1735.4
579.238	1522.41
579.442	1006.73
579.645	1431.48
579.849	1428.41
580.053	1499.27
580.257	1122.44
580.46	1145.17
580.664	1716.15
580.868	1626.04
581.071	1296.72
581.275	1226.48
581.479	1193.71
581.682	1677.64
581.886	1036.84
582.09	1229.55
582.293	1711.64
582.497	1736.22
582.7	1332.56
582.904	1081.89
583.107	1506.03
583.311	1422.06
583.515	1196.99
583.718	1184.7
583.922	1661.67
584.125	2030.51
584.329	1096.84
584.532	1277.88
584.735	1894.73
584.939	1624.6
585.142	1019.43
585.346	1077.79
585.549	1636.69
585.753	1404.86
585.956	1187.36
586.159	1348.95
586.363	1910.09
586.566	1698.53
586.769	1129.4
586.973	1084.76
587.176	1684.4
587.379	1807.08
587.582	1484.32
587.786	1444.38
587.989	1593.06
588.192	2290.6
588.395	1296.93
588.599	1545.96
588.802	1692.39
589.005	1790.49
589.208	1304.3
589.411	1241.02
589.615	1811.58
589.818	1996.1
590.021	1524.46
590.224	1399.53
590.427	1876.71
590.63	1797.25
590.833	1105.03
591.036	1208.66
591.239	1534.7
591.442	1497.63
591.645	1499.06
591.848	1296.31
592.051	1728.64
592.254	1889.2
592.457	1384.38
592.66	1361.03
592.863	1620.3
593.066	1821.62
593.269	1323.55
593.472	1393.59
593.675	1503.16
593.878	1919.92
594.081	1417.76
594.284	1248.39
594.486	1837.59
594.689	1733.14
594.892	1433.94
595.095	1392.77
595.298	1862.99
595.5	1552.1
595.703	1483.91
595.906	1495.58
596.109	2048.74
596.311	1918.69
596.514	1137.6
596.717	1425.34
596.92	2036.86
597.122	1911.32
597.325	1151.32
597.528	1327.24
597.73	2115.5
597.933	1822.23
598.136	1383.15
598.338	1112.61
598.541	1887.97
598.743	2082.94
598.946	1474.9
599.148	1425.54
599.351	2068.19
599.554	1962.93
599.756	1479.4
599.959	1463.22
600.161	2070.24
600.363	2338.93
600.566	1690.96
600.768	1435.37
600.971	2148.68
601.173	1966.2
601.376	1454.21
601.578	1460.15
601.78	1912.96
601.983	2402.42
602.185	1381.92
602.388	1680.1
602.59	1978.29
602.792	1744.2
602.995	1700.58
603.197	1481.65
603.399	2084.37
603.601	1980.74
603.804	1523.84
604.006	1433.53
604.208	1763.05
604.41	1410.79
604.613	1668.43
604.815	1469.78
605.017	2350.2
605.219	1699.56
605.421	1933.44
605.623	1485.55
605.826	2213.39
606.028	2268.69
606.23	1499.68
606.432	1522.61
606.634	2202.13
606.836	2192.91
607.038	1413.46
607.24	1678.46
607.442	2035.02
607.644	1925.24
607.846	1650.82
608.048	1471.41
608.25	2248.62
608.452	1710.62
608.654	1579.14
608.856	1356.93
609.058	1886.13
609.26	2088.67
609.462	1653.89
609.664	1613.95
609.866	2239.2
610.067	2139.87
610.269	1725.77
610.471	1615.8
610.673	1829.6
610.875	2095.23
611.077	1457.69
611.278	1672.52
611.48	1976.85
611.682	2331.36
611.884	1661.88
612.085	1656.35
612.287	1717.99
612.489	2036.04
612.69	1464.86
612.892	1598.8
613.094	2246.37
613.295	2104.44
613.497	1475.1
613.699	1603.71
613.9	2306.17
614.102	2153.59
614.304	1644.88
614.505	1474.28
614.707	1934.66
614.908	2006.75
615.11	1441.51
615.311	1675.19
615.513	2148.27
615.714	2149.7
615.916	1513.6
